"SpinPeachHefeweisen_50x - RawData"
"Wavelength nm.","Abs."
190.00,3.091
191.00,3.036
192.00,3.313
193.00,3.361
194.00,3.421
195.00,3.352
196.00,3.308
197.00,3.206
198.00,3.344
199.00,3.227
200.00,3.303
201.00,3.248
202.00,3.155
203.00,3.077
204.00,2.946
205.00,2.833
206.00,2.718
207.00,2.609
208.00,2.480
209.00,2.374
210.00,2.283
211.00,2.178
212.00,2.075
213.00,1.979
214.00,1.885
215.00,1.796
216.00,1.706
217.00,1.621
218.00,1.539
219.00,1.457
220.00,1.376
221.00,1.303
222.00,1.234
223.00,1.166
224.00,1.097
225.00,1.034
226.00,0.970
227.00,0.906
228.00,0.844
229.00,0.788
230.00,0.735
231.00,0.688
232.00,0.647
233.00,0.610
234.00,0.579
235.00,0.552
236.00,0.529
237.00,0.509
238.00,0.494
239.00,0.481
240.00,0.472
241.00,0.464
242.00,0.460
243.00,0.457
244.00,0.455
245.00,0.455
246.00,0.456
247.00,0.458
248.00,0.461
249.00,0.464
250.00,0.468
251.00,0.472
252.00,0.476
253.00,0.481
254.00,0.486
255.00,0.490
256.00,0.495
257.00,0.499
258.00,0.502
259.00,0.504
260.00,0.506
261.00,0.507
262.00,0.509
263.00,0.512
264.00,0.513
265.00,0.514
266.00,0.515
267.00,0.515
268.00,0.515
269.00,0.513
270.00,0.510
271.00,0.507
272.00,0.503
273.00,0.498
274.00,0.493
275.00,0.487
276.00,0.480
277.00,0.472
278.00,0.464
279.00,0.455
280.00,0.445
281.00,0.435
282.00,0.424
283.00,0.412
284.00,0.400
285.00,0.386
286.00,0.374
287.00,0.361
288.00,0.348
289.00,0.335
290.00,0.320
291.00,0.307
292.00,0.294
293.00,0.283
294.00,0.274
295.00,0.265
296.00,0.257
297.00,0.250
298.00,0.243
299.00,0.237
300.00,0.231
301.00,0.226
302.00,0.221
303.00,0.217
304.00,0.213
305.00,0.209
306.00,0.206
307.00,0.202
308.00,0.199
309.00,0.196
310.00,0.193
311.00,0.190
312.00,0.188
313.00,0.185
314.00,0.183
315.00,0.180
316.00,0.178
317.00,0.176
318.00,0.173
319.00,0.171
320.00,0.168
321.00,0.166
322.00,0.163
323.00,0.160
324.00,0.157
325.00,0.154
326.00,0.150
327.00,0.148
328.00,0.145
329.00,0.142
330.00,0.138
331.00,0.135
332.00,0.131
333.00,0.128
334.00,0.124
335.00,0.121
336.00,0.118
337.00,0.114
338.00,0.111
339.00,0.108
340.00,0.105
341.00,0.100
342.00,0.097
343.00,0.093
344.00,0.090
345.00,0.087
346.00,0.084
347.00,0.081
348.00,0.078
349.00,0.075
350.00,0.072
351.00,0.070
352.00,0.067
353.00,0.065
354.00,0.063
355.00,0.061
356.00,0.058
357.00,0.056
358.00,0.054
359.00,0.052
360.00,0.050
361.00,0.048
362.00,0.047
363.00,0.045
364.00,0.044
365.00,0.042
366.00,0.041
367.00,0.040
368.00,0.038
369.00,0.037
370.00,0.035
371.00,0.035
372.00,0.033
373.00,0.032
374.00,0.031
375.00,0.030
376.00,0.029
377.00,0.028
378.00,0.027
379.00,0.027
380.00,0.026
381.00,0.025
382.00,0.024
383.00,0.024
384.00,0.023
385.00,0.023
386.00,0.022
387.00,0.021
388.00,0.021
389.00,0.020
390.00,0.020
391.00,0.019
392.00,0.019
393.00,0.018
394.00,0.018
395.00,0.017
396.00,0.017
397.00,0.017
398.00,0.016
399.00,0.016
400.00,0.016
401.00,0.015
402.00,0.015
403.00,0.015
404.00,0.014
405.00,0.014
406.00,0.014
407.00,0.014
408.00,0.013
409.00,0.013
410.00,0.013
411.00,0.013
412.00,0.012
413.00,0.012
414.00,0.012
415.00,0.012
416.00,0.011
417.00,0.012
418.00,0.011
419.00,0.011
420.00,0.011
421.00,0.011
422.00,0.011
423.00,0.010
424.00,0.010
425.00,0.010
426.00,0.010
427.00,0.010
428.00,0.010
429.00,0.010
430.00,0.009
431.00,0.009
432.00,0.009
433.00,0.009
434.00,0.009
435.00,0.009
436.00,0.009
437.00,0.009
438.00,0.008
439.00,0.008
440.00,0.008
441.00,0.008
442.00,0.008
443.00,0.008
444.00,0.008
445.00,0.008
446.00,0.008
447.00,0.007
448.00,0.007
449.00,0.007
450.00,0.007
451.00,0.007
452.00,0.007
453.00,0.007
454.00,0.007
455.00,0.007
456.00,0.006
457.00,0.006
458.00,0.006
459.00,0.006
460.00,0.006
461.00,0.006
462.00,0.006
463.00,0.006
464.00,0.006
465.00,0.006
466.00,0.006
467.00,0.005
468.00,0.005
469.00,0.005
470.00,0.005
471.00,0.005
472.00,0.005
473.00,0.005
474.00,0.005
475.00,0.005
476.00,0.005
477.00,0.005
478.00,0.005
479.00,0.004
480.00,0.004
481.00,0.004
482.00,0.004
483.00,0.004
484.00,0.004
485.00,0.004
486.00,0.004
487.00,0.004
488.00,0.004
489.00,0.004
490.00,0.004
491.00,0.003
492.00,0.003
493.00,0.003
494.00,0.003
495.00,0.003
496.00,0.003
497.00,0.003
498.00,0.003
499.00,0.003
500.00,0.003
501.00,0.003
502.00,0.003
503.00,0.003
504.00,0.003
505.00,0.003
506.00,0.003
507.00,0.003
508.00,0.002
509.00,0.002
510.00,0.002
511.00,0.002
512.00,0.002
513.00,0.002
514.00,0.002
515.00,0.002
516.00,0.002
517.00,0.002
518.00,0.002
519.00,0.002
520.00,0.002
521.00,0.002
522.00,0.002
523.00,0.002
524.00,0.001
525.00,0.001
526.00,0.001
527.00,0.001
528.00,0.001
529.00,0.001
530.00,0.001
531.00,0.001
532.00,0.001
533.00,0.001
534.00,0.001
535.00,0.001
536.00,0.001
537.00,0.001
538.00,0.001
539.00,0.001
540.00,0.001
541.00,0.001
542.00,0.001
543.00,0.001
544.00,0.001
545.00,0.001
546.00,0.000
547.00,0.000
548.00,0.000
549.00,0.000
550.00,0.000
551.00,0.000
552.00,0.000
553.00,0.000
554.00,0.000
555.00,0.000
556.00,0.000
557.00,-0.000
558.00,-0.000
559.00,-0.000
560.00,-0.000
561.00,-0.000
562.00,-0.000
563.00,-0.000
564.00,-0.000
565.00,-0.000
566.00,-0.000
567.00,-0.000
568.00,-0.000
569.00,-0.000
570.00,-0.001
571.00,-0.001
572.00,-0.001
573.00,-0.001
574.00,-0.001
575.00,-0.001
576.00,-0.001
577.00,-0.001
578.00,-0.001
579.00,-0.001
580.00,-0.001
581.00,-0.001
582.00,-0.001
583.00,-0.001
584.00,-0.001
585.00,-0.001
586.00,-0.001
587.00,-0.001
588.00,-0.001
589.00,-0.001
590.00,-0.001
591.00,-0.001
592.00,-0.001
593.00,-0.001
594.00,-0.001
595.00,-0.001
596.00,-0.001
597.00,-0.001
598.00,-0.001
599.00,-0.001
600.00,-0.001
601.00,-0.001
602.00,-0.001
603.00,-0.001
604.00,-0.001
605.00,-0.001
606.00,-0.001
607.00,-0.001
608.00,-0.001
609.00,-0.001
610.00,-0.001
611.00,-0.001
612.00,-0.001
613.00,-0.001
614.00,-0.001
615.00,-0.001
616.00,-0.001
617.00,-0.001
618.00,-0.001
619.00,-0.001
620.00,-0.001
621.00,-0.001
622.00,-0.001
623.00,-0.001
624.00,-0.001
625.00,-0.001
626.00,-0.001
627.00,-0.001
628.00,-0.001
629.00,-0.001
630.00,-0.001
631.00,-0.001
632.00,-0.001
633.00,-0.001
634.00,-0.001
635.00,-0.001
636.00,-0.001
637.00,-0.001
638.00,-0.001
639.00,-0.001
640.00,-0.001
641.00,-0.001
642.00,-0.001
643.00,-0.001
644.00,-0.001
645.00,-0.001
646.00,-0.001
647.00,-0.001
648.00,-0.001
649.00,-0.001
650.00,-0.001
651.00,-0.001
652.00,-0.001
653.00,-0.001
654.00,-0.001
655.00,-0.001
656.00,-0.001
657.00,-0.001
658.00,-0.001
659.00,-0.001
660.00,-0.001
661.00,-0.001
662.00,-0.001
663.00,-0.001
664.00,-0.001
665.00,-0.001
666.00,-0.001
667.00,-0.001
668.00,-0.001
669.00,-0.001
670.00,-0.001
671.00,-0.001
672.00,-0.001
673.00,-0.001
674.00,-0.001
675.00,-0.001
676.00,-0.001
677.00,-0.001
678.00,-0.001
679.00,-0.001
680.00,-0.001
681.00,-0.001
682.00,-0.001
683.00,-0.001
684.00,-0.001
685.00,-0.001
686.00,-0.001
687.00,-0.001
688.00,-0.001
689.00,-0.001
690.00,-0.001
691.00,-0.001
692.00,-0.001
693.00,-0.001
694.00,-0.001
695.00,-0.000
696.00,-0.000
697.00,-0.000
698.00,-0.000
699.00,-0.000
700.00,-0.000
701.00,-0.000
702.00,-0.000
703.00,-0.000
704.00,0.000
705.00,0.000
706.00,0.000
707.00,0.000
708.00,0.000
709.00,0.000
710.00,0.001
711.00,0.001
712.00,0.001
713.00,0.001
714.00,0.001
715.00,0.001
716.00,0.001
717.00,0.002
718.00,0.002
719.00,0.002
720.00,0.002
721.00,0.002
722.00,0.003
723.00,0.003
724.00,0.003
725.00,0.003
726.00,0.004
727.00,0.004
728.00,0.004
729.00,0.005
730.00,0.005
731.00,0.006
732.00,0.006
733.00,0.007
734.00,0.007
735.00,0.008
736.00,0.008
737.00,0.008
738.00,0.008
739.00,0.008
740.00,0.009
741.00,0.009
742.00,0.009
743.00,0.009
744.00,0.009
745.00,0.009
746.00,0.009
747.00,0.009
748.00,0.009
749.00,0.009
750.00,0.009
751.00,0.009
752.00,0.009
753.00,0.009
754.00,0.009
755.00,0.009
756.00,0.008
757.00,0.008
758.00,0.008
759.00,0.008
760.00,0.009
761.00,0.008
762.00,0.008
763.00,0.008
764.00,0.008
765.00,0.008
766.00,0.008
767.00,0.008
768.00,0.008
769.00,0.008
770.00,0.008
771.00,0.008
772.00,0.008
773.00,0.008
774.00,0.007
775.00,0.007
776.00,0.007
777.00,0.007
778.00,0.007
779.00,0.007
780.00,0.007
781.00,0.007
782.00,0.007
783.00,0.007
784.00,0.007
785.00,0.006
786.00,0.006
787.00,0.006
788.00,0.006
789.00,0.006
790.00,0.006
791.00,0.006
792.00,0.006
793.00,0.005
794.00,0.005
795.00,0.005
796.00,0.005
797.00,0.005
798.00,0.005
799.00,0.005
800.00,0.005
801.00,0.005
802.00,0.005
803.00,0.005
804.00,0.005
805.00,0.004
806.00,0.004
807.00,0.004
808.00,0.004
809.00,0.004
810.00,0.004
811.00,0.004
812.00,0.004
813.00,0.004
814.00,0.004
815.00,0.004
816.00,0.004
817.00,0.005
818.00,0.005
819.00,0.005
820.00,0.005
821.00,0.005
822.00,0.005
823.00,0.006
824.00,0.006
825.00,0.006
826.00,0.007
827.00,0.007
828.00,0.008
829.00,0.008
830.00,0.009
831.00,0.009
832.00,0.010
833.00,0.010
834.00,0.011
835.00,0.011
836.00,0.011
837.00,0.011
838.00,0.011
839.00,0.012
840.00,0.012
841.00,0.012
842.00,0.012
843.00,0.012
844.00,0.012
845.00,0.012
846.00,0.012
847.00,0.012
848.00,0.012
849.00,0.013
850.00,0.013
851.00,0.013
852.00,0.013
853.00,0.013
854.00,0.013
855.00,0.013
856.00,0.013
857.00,0.013
858.00,0.013
859.00,0.014
860.00,0.014
861.00,0.014
862.00,0.014
863.00,0.014
864.00,0.014
865.00,0.014
866.00,0.014
867.00,0.014
868.00,0.014
869.00,0.014
870.00,0.015
871.00,0.015
872.00,0.015
873.00,0.015
874.00,0.015
875.00,0.015
876.00,0.016
877.00,0.016
878.00,0.016
879.00,0.016
880.00,0.016
881.00,0.017
882.00,0.017
883.00,0.017
884.00,0.017
885.00,0.018
886.00,0.018
887.00,0.018
888.00,0.018
889.00,0.018
890.00,0.019
891.00,0.019
892.00,0.019
893.00,0.019
894.00,0.020
895.00,0.020
896.00,0.020
897.00,0.020
898.00,0.021
899.00,0.021
900.00,0.021
